# Transmission profile of the MKO NSFCam L' filter, as described in Tokunaga+
# 2002. Downloaded from
# http://irtfweb.ifa.hawaii.edu/~nsfcam/hist/filters.2006.html. Wavelengths
# are in microns, response is percentage transmission. Note the large number
# of negative values! Way to go, guys! I'm currently using this to approximate
# the L-band filter of LBT LMIRCam, which is similar to this one but doesn't
# go as red. I can't find any tabulated response info for that filter.

4.4993	0.541607
4.4982	0.853204
4.4971	0.420348
4.496	0.237826
4.4949	0.373643
4.4938	0.229619
4.4927	0.106895
4.4916	0.196593
4.4904	0.296452
4.4893	0.189264
4.4882	-0.16386
4.4871	-0.370028
4.486	-0.255609
4.4849	0.023157
4.4838	-0.138162
4.4827	-0.306907
4.4816	-0.308959
4.4805	-0.344037
4.4794	-0.284238
4.4783	-0.229325
4.4772	-0.273686
4.4761	-0.354296
4.475	-0.289026
4.4739	0.118522
4.4728	0.433832
4.4717	0.271732
4.4706	-0.048757
4.4695	-0.331628
4.4684	-0.503304
4.4673	-0.384196
4.4662	-0.220141
4.4651	-0.222877
4.464	-0.209979
4.4629	-0.034101
4.4618	0.159951
4.4607	0.144025
4.4596	-0.118425
4.4585	-0.432464
4.4574	-0.483665
4.4563	-0.362309
4.4552	-0.302608
4.4541	-0.328012
4.4531	-0.353417
4.452	-0.16728
4.4509	0.236751
4.4498	0.209295
4.4487	-0.289808
4.4476	-0.351854
4.4465	-0.117741
4.4454	-0.020715
4.4443	-0.111585
4.4433	-0.203628
4.4422	-0.127316
4.4411	0.220531
4.44	0.395628
4.4389	0.164348
4.4378	0.006937
4.4368	-0.005472
4.4357	-0.007426
4.4346	-0.050614
4.4335	-0.257857
4.4324	-0.21887
4.4313	-0.019053
4.4303	0.170211
4.4292	0.079829
4.4281	-0.314138
4.427	-0.465979
4.426	-0.345796
4.4249	-0.087744
4.4238	0.158974
4.4227	0.279353
4.4216	0.197081
4.4206	0.116079
4.4195	0.031951
4.4184	-0.045631
4.4174	-0.031169
4.4163	0.062925
4.4152	0.122333
4.4141	0.061753
4.4131	0.03156
4.412	0.243298
4.4109	0.19288
4.4099	-0.15956
4.4088	-0.322541
4.4077	-0.259225
4.4066	-0.171481
4.4056	-0.179982
4.4045	-0.198058
4.4034	-0.181741
4.4024	-0.154186
4.4013	0.056281
4.4002	0.336513
4.3921	0.30378
4.3911	-0.001368
4.39	-0.202651
4.389	-0.231182
4.3879	-0.277887
4.3868	-0.136989
4.3858	0.137673
4.3847	0.073673
4.3837	-0.209881
4.3826	-0.197179
4.3815	-0.013484
4.3805	-0.005863
4.3794	0.043872
4.3784	0.113832
4.3773	0.191218
4.3763	0.136989
4.3752	-0.001954
4.3742	-0.354785
4.3731	-0.603555
4.372	-0.342278
4.371	-0.230302
4.3699	-0.246034
4.3689	0.066345
4.3678	0.100153
4.3668	-0.035762
4.3657	-0.18389
4.3647	-0.158583
4.3636	0.072794
4.3626	0.213789
4.3615	-0.008696
4.3605	-0.336709
4.3594	-0.05589
4.3584	0.420935
4.3574	0.338761
4.3563	0.12585
4.3553	0.104354
4.3542	0.123896
4.3532	0.116861
4.3521	0.048757
4.3511	0.214669
4.35	0.405985
4.349	0.313258
4.348	0.223951
4.3469	0.392696
4.3459	0.523823
4.3448	0.322443
4.3438	0.07807
4.3428	0.005863
4.3417	-0.050711
4.3407	-0.008892
4.3396	0.193173
4.3386	0.311109
4.3376	0.328306
4.3365	0.33749
4.3355	0.163078
4.3345	-0.071719
4.3334	-0.065954
4.3324	-0.07426
4.3314	-0.204702
4.3303	-0.183109
4.3293	-0.153209
4.3283	-0.258931
4.3272	-0.255512
4.3262	-0.02218
4.3252	0.19542
4.3241	0.239292
4.3231	0.115689
4.3221	0.107872
4.321	0.266553
4.32	0.431976
4.319	0.258052
4.318	-0.117643
4.3169	-0.13484
4.3159	0.209197
4.3149	0.300947
4.3139	0.090577
4.3128	0.02345
4.3118	-0.063218
4.3108	-0.154773
4.3098	-0.27691
4.3087	-0.191609
4.3077	-0.290687
4.3067	-0.585869
4.3057	-0.601307
4.3047	-0.351072
4.3036	-0.453472
4.3026	-0.573655
4.3016	-0.367976
4.3006	-0.466956
4.2996	-0.486498
4.2985	-0.295768
4.2975	-0.033905
4.2965	-0.099371
4.2955	-0.228251
4.2945	-0.209686
4.2935	-0.232941
4.2924	-0.40364
4.2914	-0.577759
4.2904	-0.338174
4.2894	-0.07895
4.2884	0.002736
4.2874	0.046999
4.2864	0.137967
4.2853	0.123603
4.2843	-0.079829
4.2833	-0.194247
4.2823	-0.330455
4.2813	-0.634431
4.2803	-0.644788
4.2793	-0.387909
4.2783	-0.388397
4.2773	-0.595347
4.2763	-0.633454
4.2753	-0.447903
4.2742	-0.19757
4.2732	0.063121
4.2722	0.144513
4.2712	-0.025405
4.2702	-0.298016
4.2692	-0.406962
4.2682	-0.398364
4.2672	-0.317069
4.2662	-0.12673
4.2652	0.239585
4.2642	0.533887
4.2632	0.493729
4.2622	0.579713
4.2612	0.562516
4.2602	0.438327
4.2592	0.430608
4.2582	0.350583
4.2572	0.254535
4.2562	0.138064
4.2552	0.037228
4.2542	0.03371
4.2532	0.202748
4.2522	0.399732
4.2512	0.367878
4.2502	0.37804
4.2492	0.395628
4.2482	-0.15956
4.2472	-0.220922
4.2463	0.071231
4.2453	0.05716
4.2443	-0.397093
4.2433	-0.721979
4.2423	-0.720904
4.2413	-0.359084
4.2403	-0.005667
4.2393	-0.140605
4.2383	-0.353515
4.2373	-0.373252
4.2363	-0.148226
4.2354	0.082467
4.2344	0.158876
4.2334	0.266553
4.2324	0.513955
4.2314	0.746504
4.2304	0.954627
4.2294	0.858675
4.2284	0.641564
4.2275	0.653778
4.2265	0.803665
4.2255	0.938114
4.2245	1.081845
4.2235	1.183757
4.2225	0.983549
4.2216	0.597399
4.2206	0.569063
4.2196	0.965863
4.2186	1.290749
4.2176	1.37136
4.2167	1.442981
4.2157	1.521931
4.2147	1.617882
4.2137	1.572252
4.2127	1.409564
4.2118	1.196068
4.2108	0.851543
4.2098	0.750804
4.2088	0.720318
4.2079	0.775427
4.2069	1.118486
4.2059	1.525253
4.2049	1.445815
4.204	1.434578
4.203	1.560624
4.202	1.519879
4.201	1.420801
4.2001	1.525058
4.1991	1.706114
4.1981	1.701424
4.1972	1.982243
4.1962	1.956838
4.1952	1.871928
4.1943	1.89274
4.1933	2.066566
4.1923	2.133009
4.1913	2.276057
4.1904	2.570164
4.1894	2.22857
4.1884	2.060899
4.1875	2.353541
4.1865	2.638659
4.1855	2.80457
4.1846	2.96247
4.1836	3.268204
4.1827	3.657578
4.1817	3.604131
4.1807	3.551172
4.1798	3.743368
4.1788	3.798476
4.1778	3.74669
4.1769	3.825346
4.1759	4.063759
4.175	4.27706
4.174	4.395582
4.173	4.603314
4.1721	4.74089
4.1711	4.643472
4.1702	4.82873
4.1692	5.403265
4.1682	5.720237
4.1673	5.883608
4.1663	6.318222
4.1654	6.671834
4.1644	6.838332
4.1635	7.163413
4.1625	7.606137
4.1616	7.82149
4.1606	7.854516
4.1597	8.172172
4.1587	8.94066
4.1577	9.678664
4.1568	9.938084
4.1558	10.28388
4.1549	10.832033
4.1539	11.39924
4.153	12.087314
4.152	12.694678
4.1511	13.521989
4.1501	14.117825
4.1492	14.095548
4.1482	14.556543
4.1473	15.436226
4.1464	16.151953
4.1454	17.435959
4.1445	18.986322
4.1435	19.894733
4.1426	20.32583
4.1416	21.195253
4.1407	22.429234
4.1397	23.15131
4.1388	23.937778
4.1378	25.015617
4.1369	26.067856
4.136	27.290794
4.135	28.721756
4.1341	30.018955
4.1331	31.021753
4.1322	32.452618
4.1313	34.332268
4.1303	35.966564
4.1294	37.269817
4.1284	38.497936
4.1275	39.979809
4.1266	41.57111
4.1256	43.205212
4.1247	44.953537
4.1237	46.756481
4.1228	48.453903
4.1219	50.185909
4.1209	52.129948
4.12	54.04565
4.1191	55.691086
4.1181	57.10104
4.1172	58.412601
4.1163	59.747124
4.1153	61.318691
4.1144	63.262245
4.1135	65.069878
4.1125	66.304443
4.1116	67.424492
4.1107	68.783829
4.1097	70.351494
4.1088	71.997223
4.1079	73.477722
4.107	75.170654
4.106	76.945061
4.1051	78.256622
4.1042	79.307785
4.1032	80.23056
4.1023	80.879845
4.1014	81.910202
4.1005	83.374969
4.0995	84.52726
4.0986	85.617798
4.0977	86.353561
4.0968	86.925453
4.0958	87.460419
4.0949	88.292419
4.094	89.136345
4.0931	90.187988
4.0921	91.024101
4.0912	91.263191
4.0903	91.385231
4.0894	91.505318
4.0885	91.787704
4.0875	92.503426
4.0866	93.055687
4.0857	93.489517
4.0848	93.568077
4.0839	93.463623
4.0829	94.251358
4.082	94.674835
4.0811	94.476288
4.0802	94.602432
4.0793	95.05043
4.0783	95.394081
4.0774	95.547096
4.0765	95.285912
4.0756	95.122154
4.0747	95.303307
4.0738	95.42437
4.0729	95.55471
4.0719	95.34552
4.071	94.848076
4.0701	94.851204
4.0692	95.012321
4.0683	94.881195
4.0674	94.768143
4.0665	94.970802
4.0656	95.251221
4.0646	95.061668
4.0637	94.423134
4.0628	93.97348
4.0619	94.050179
4.061	94.146126
4.0601	93.993111
4.0592	94.046661
4.0583	94.069138
4.0574	93.818405
4.0565	93.643608
4.0556	93.422485
4.0547	92.695328
4.0538	92.435707
4.0529	92.657616
4.0519	92.849319
4.051	92.967552
4.0501	93.10659
4.0492	93.02002
4.0483	92.615501
4.0474	92.280739
4.0465	91.836266
4.0456	92.056793
4.0447	91.782913
4.0438	91.117119
4.0429	91.366959
4.042	91.622475
4.0411	91.468781
4.0402	91.565018
4.0393	91.727615
4.0384	91.643669
4.0375	91.810463
4.0366	91.587494
4.0357	91.37986
4.0348	91.337349
4.0339	91.170074
4.033	91.299835
4.0321	90.974655
4.0313	91.003288
4.0304	91.314201
4.0295	91.465065
4.0286	91.336281
4.0277	90.993126
4.0268	90.665703
4.0259	90.269196
4.025	90.170403
4.0241	90.211441
4.0232	89.978302
4.0223	89.660255
4.0214	89.679115
4.0205	89.626549
4.0196	89.487991
4.0188	89.790405
4.0179	89.953102
4.017	89.752304
4.0161	89.600563
4.0152	89.459961
4.0143	89.256035
4.0134	89.152954
4.0125	89.323059
4.0117	89.554642
4.0108	89.610527
4.0099	89.598412
4.009	89.569199
4.0081	89.37661
4.0072	89.143669
4.0063	89.338112
4.0055	89.364685
4.0046	89.265999
4.0037	89.218613
4.0028	89.299515
4.0019	89.306259
4.001	89.071167
4.0002	89.16243
3.9993	89.023682
3.9984	88.950401
3.9975	88.991631
3.9966	88.910919
3.9958	89.011467
3.9949	89.600853
3.994	89.742332
3.9931	89.768913
3.9922	90.020218
3.9914	89.977821
3.9905	90.073959
3.9896	90.079437
3.9887	89.728653
3.9879	89.866531
3.987	90.620064
3.9861	90.413795
3.9852	90.281403
3.9844	90.63414
3.9835	90.831123
3.9826	90.912506
3.9817	90.814606
3.9809	90.621239
3.98	90.357224
3.9791	90.187309
3.9782	90.426895
3.9774	90.66423
3.9765	90.882813
3.9756	91.095428
3.9748	91.157471
3.9739	91.205833
3.973	91.394615
3.9722	91.78067
3.9713	92.048882
3.9704	92.003738
3.9695	91.756432
3.9687	91.449524
3.9678	91.566872
3.9669	92.201607
3.9661	92.748093
3.9652	92.854301
3.9643	92.665039
3.9635	92.613251
3.9626	92.719856
3.9617	92.561073
3.9609	92.29335
3.96	92.353249
3.9592	92.73558
3.9583	92.858704
3.9574	92.903152
3.9566	93.35038
3.9557	93.434502
3.9548	92.959534
3.954	92.661613
3.9531	92.964226
3.9523	93.131218
3.9514	93.259117
3.9505	93.432747
3.9497	93.548828
3.9488	93.475349
3.948	93.170982
3.9471	93.094086
3.9462	93.338943
3.9454	93.861198
3.9445	93.750496
3.9437	93.669594
3.9428	94.111534
3.942	93.933319
3.9411	93.611549
3.9402	93.384773
3.9394	93.588692
3.9385	93.757141
3.9377	94.176712
3.9368	94.44561
3.936	94.043335
3.9351	94.135185
3.9343	94.344086
3.9334	93.975624
3.9326	93.895309
3.9317	94.066292
3.9309	94.30706
3.93	94.305496
3.9292	94.063171
3.9283	94.411606
3.9275	94.789642
3.9266	94.488411
3.9258	94.480202
3.9249	94.555626
3.9241	94.266312
3.9232	94.076065
3.9224	94.106262
3.9215	94.032005
3.9207	94.063362
3.9198	94.405746
3.919	94.466324
3.9181	94.163231
3.9173	94.179932
3.9164	94.592468
3.9156	94.859215
3.9148	94.632431
3.9139	94.071472
3.9131	93.716789
3.9122	93.774628
3.9114	93.781761
3.9105	93.833359
3.9097	93.958717
3.9089	94.005035
3.908	93.946312
3.9072	93.735451
3.9063	93.837753
3.9055	93.85759
3.9047	93.390045
3.9038	93.40744
3.903	93.952072
3.9021	94.059364
3.9013	93.81958
3.9005	93.983734
3.8996	93.818405
3.8988	93.746292
3.8979	93.687965
3.8971	93.36113
3.8963	93.187004
3.8954	93.067406
3.8946	93.207039
3.8938	93.398842
3.8929	93.371483
3.8921	93.599831
3.8913	93.788994
3.8904	93.45063
3.8896	92.983574
3.8888	93.042107
3.8879	93.33934
3.8871	93.205086
3.8863	92.951134
3.8854	92.766556
3.8846	92.780342
3.8838	92.82724
3.8829	92.937744
3.8821	92.87941
3.8813	92.767052
3.8804	93.064667
3.8796	93.52166
3.8788	93.752449
3.878	93.484337
3.8771	92.714188
3.8763	92.304588
3.8755	92.587654
3.8746	92.802422
3.8738	92.730896
3.873	92.822739
3.8722	92.981522
3.8713	93.143715
3.8705	93.31266
3.8697	93.13913
3.8689	92.67041
3.868	92.349823
3.8672	92.378555
3.8664	92.485252
3.8656	92.553749
3.8647	92.648911
3.8639	92.674614
3.8631	92.777893
3.8623	92.950157
3.8615	93.138153
3.8606	92.965004
3.8598	92.973122
3.859	92.922211
3.8582	92.499031
3.8574	92.301262
3.8565	92.300484
3.8557	92.636116
3.8549	92.700119
3.8541	92.534401
3.8533	92.654877
3.8524	92.715164
3.8516	92.661613
3.8508	92.535667
3.85	92.576118
3.8492	92.617355
3.8484	92.25338
3.8475	91.895287
3.8467	92.242836
3.8459	92.680473
3.8451	92.772423
3.8443	92.697968
3.8435	92.761482
3.8427	92.607872
3.8418	92.552673
3.841	92.479095
3.8402	92.271759
3.8394	92.10936
3.8386	91.99221
3.8378	92.36438
3.837	92.638756
3.8362	92.680862
3.8354	92.873062
3.8345	92.901398
3.8337	92.92749
3.8329	93.192963
3.8321	93.443199
3.8313	93.299278
3.8305	93.207825
3.8297	93.434021
3.8289	93.650055
3.8281	93.692169
3.8273	93.622696
3.8265	93.553123
3.8257	93.64888
3.8248	93.744637
3.824	93.571396
3.8232	93.346565
3.8224	93.012108
3.8216	92.377678
3.8208	92.085617
3.82	92.336441
3.8192	92.542709
3.8184	92.624977
3.8176	92.743301
3.8168	92.687706
3.816	92.684975
3.8152	92.706764
3.8144	92.506454
3.8136	92.503525
3.8128	92.724541
3.812	92.739594
3.8112	92.300674
3.8104	92.114052
3.8096	92.196617
3.8088	92.287971
3.808	92.687019
3.8072	92.411484
3.8064	91.943253
3.8056	91.855804
3.8048	92.008133
3.804	92.059532
3.8032	91.598724
3.8024	91.628723
3.8016	91.902412
3.8008	92.204826
3.8	92.020737
3.7992	91.771584
3.7984	91.898018
3.7976	92.20385
3.7968	92.028847
3.7961	91.50502
3.7953	91.734253
3.7945	92.000023
3.7937	91.993576
3.7929	91.936806
3.7921	91.862061
3.7913	91.642998
3.7905	91.52076
3.7897	91.773148
3.7889	91.823364
3.7881	91.953415
3.7873	92.102028
3.7866	92.226807
3.7858	92.408455
3.785	92.457993
3.7842	92.297646
3.7834	91.903488
3.7826	91.548119
3.7818	91.517143
3.781	91.71109
3.7802	91.763664
3.7795	91.517723
3.7787	91.390511
3.7779	91.667717
3.7771	92.183228
3.7763	92.504013
3.7755	92.36673
3.7747	92.265602
3.774	92.179611
3.7732	91.872124
3.7724	91.74334
3.7716	91.587204
3.7708	91.639862
3.77	91.648857
3.7693	91.45549
3.7685	91.797958
3.7677	91.711296
3.7669	91.312248
3.7661	91.031715
3.7653	90.882317
3.7646	90.936745
3.7638	90.6614
3.763	90.149689
3.7622	90.382538
3.7614	90.989319
3.7607	90.641663
3.7599	90.385757
3.7591	90.426796
3.7583	90.409111
3.7576	90.48259
3.7568	90.717484
3.756	90.693542
3.7552	90.418297
3.7544	90.345207
3.7537	90.733505
3.7529	90.957458
3.7521	90.944458
3.7513	91.134895
3.7506	90.87587
3.7498	90.574043
3.749	90.524704
3.7482	90.208122
3.7475	90.362404
3.7467	90.558701
3.7459	90.524895
3.7451	90.612442
3.7444	90.499588
3.7436	90.477898
3.7428	90.636971
3.7421	90.664619
3.7413	90.487762
3.7405	90.23587
3.7397	89.962379
3.739	89.891937
3.7382	90.306808
3.7374	90.841278
3.7367	90.815872
3.7359	90.640488
3.7351	90.77787
3.7344	90.716896
3.7336	90.511902
3.7328	90.297623
3.7321	90.118324
3.7313	90.421913
3.7305	90.701363
3.7298	90.522751
3.729	90.457474
3.7282	90.390549
3.7275	90.277199
3.7267	90.504082
3.7259	91.006218
3.7252	91.344391
3.7244	91.2118
3.7236	90.543266
3.7229	90.348824
3.7221	90.767609
3.7213	91.289673
3.7206	91.677383
3.7198	91.539032
3.7191	91.638496
3.7183	91.773338
3.7175	91.297394
3.7168	91.23642
3.716	91.594917
3.7153	91.548119
3.7145	91.710213
3.7137	91.829613
3.713	91.971786
3.7122	92.49131
3.7115	92.501961
3.7107	92.479881
3.7099	92.56752
3.7092	92.768906
3.7084	93.170296
3.7077	92.964325
3.7069	92.5597
3.7062	92.576706
3.7054	92.360283
3.7046	92.421257
3.7039	92.920647
3.7031	93.020119
3.7024	93.260483
3.7016	93.399818
3.7009	93.107368
3.7001	92.762062
3.6994	92.586678
3.6986	92.597031
3.6978	92.630646
3.6971	92.488083
3.6963	92.481346
3.6956	92.745064
3.6948	92.845802
3.6941	92.803299
3.6933	92.971169
3.6926	93.346375
3.6918	93.720009
3.6911	93.802872
3.6903	93.521957
3.6896	93.18026
3.6888	93.144691
3.6881	93.36953
3.6873	93.546768
3.6866	93.707115
3.6858	93.688057
3.6851	93.626411
3.6843	93.49733
3.6836	93.493813
3.6828	93.742882
3.6821	93.513168
3.6813	93.322525
3.6806	93.451988
3.6799	93.443398
3.6791	93.730759
3.6784	93.986473
3.6776	93.81723
3.6769	94.075089
3.6761	94.426651
3.6754	94.313011
3.6746	93.968102
3.6739	94.364311
3.6732	94.569016
3.6724	93.771011
3.6717	93.482773
3.6709	93.57238
3.6702	94.089554
3.6694	94.395874
3.6687	94.056229
3.668	93.971817
3.6672	93.898529
3.6665	93.960777
3.6657	94.203484
3.665	94.377213
3.6643	94.11515
3.6635	93.948364
3.6628	94.189308
3.662	94.14769
3.6613	94.00708
3.6606	94.157166
3.6598	94.387764
3.6591	94.435059
3.6583	94.296211
3.6576	94.057114
3.6569	94.027992
3.6561	94.175438
3.6554	94.234169
3.6547	94.151405
3.6539	94.181885
3.6532	94.127075
3.6525	94.088181
3.6517	94.336563
3.651	94.276276
3.6503	93.94426
3.6495	93.774734
3.6488	93.784996
3.6481	94.041573
3.6473	94.137535
3.6466	93.780785
3.6459	93.471245
3.6451	93.547653
3.6444	93.809807
3.6437	94.103714
3.6429	93.889641
3.6422	93.760178
3.6415	93.873901
3.6407	93.644775
3.64	93.581657
3.6393	93.705559
3.6386	93.946793
3.6378	93.824562
3.6371	93.55381
3.6364	93.313248
3.6356	92.986992
3.6349	93.390533
3.6342	93.699493
3.6335	93.830818
3.6327	93.91729
3.632	93.836678
3.6313	93.388184
3.6305	92.924065
3.6298	93.149384
3.6291	93.30748
3.6284	93.425125
3.6276	93.306313
3.6269	92.767433
3.6262	92.405815
3.6255	92.733147
3.6247	93.361908
3.624	93.393272
3.6233	92.947517
3.6226	92.614525
3.6219	92.482811
3.6211	92.584724
3.6204	92.660057
3.6197	92.504105
3.619	92.462875
3.6182	92.682526
3.6175	92.850883
3.6168	92.825478
3.6161	92.730011
3.6154	92.576614
3.6146	92.403175
3.6139	92.47226
3.6132	92.754936
3.6125	92.758842
3.6118	92.376793
3.611	92.073311
3.6103	91.990646
3.6096	92.036369
3.6089	92.394577
3.6082	92.7136
3.6075	92.384514
3.6067	91.960945
3.606	91.960945
3.6053	91.735428
3.6046	91.226646
3.6039	91.254395
3.6032	91.392174
3.6024	91.34996
3.6017	91.475708
3.601	91.578308
3.6003	91.822487
3.5996	91.938072
3.5989	91.820236
3.5982	91.773727
3.5974	91.814568
3.5967	91.39579
3.596	91.088882
3.5953	91.309608
3.5946	91.206032
3.5939	90.832489
3.5932	90.714455
3.5925	90.84832
3.5918	90.861603
3.591	90.824379
3.5903	90.650154
3.5896	90.552063
3.5889	90.37442
3.5882	90.147057
3.5875	90.068886
3.5868	90.010452
3.5861	89.889679
3.5854	89.721916
3.5847	89.945473
3.584	90.375015
3.5832	90.44693
3.5825	90.282768
3.5818	90.042404
3.5811	89.647163
3.5804	89.574471
3.5797	89.619904
3.579	89.51799
3.5783	89.419403
3.5776	89.355797
3.5769	89.37925
3.5762	89.304016
3.5755	89.323059
3.5748	89.486923
3.5741	89.285347
3.5734	88.946785
3.5727	88.790054
3.572	88.722641
3.5713	88.672318
3.5706	88.528488
3.5699	88.43605
3.5692	88.35495
3.5685	88.180641
3.5678	88.142433
3.5671	88.217278
3.5664	88.14019
3.5657	88.102859
3.5649	88.207703
3.5643	88.199791
3.5636	88.039055
3.5629	87.746513
3.5622	87.634048
3.5615	87.783936
3.5608	87.853897
3.5601	87.898941
3.5594	87.931282
3.5587	87.832596
3.558	87.695412
3.5573	87.773186
3.5566	87.177155
3.5559	86.827156
3.5552	87.263535
3.5545	87.353523
3.5538	87.144722
3.5531	86.995026
3.5524	86.979095
3.5517	87.09996
3.551	87.423477
3.5503	87.499107
3.5496	87.283562
3.5489	87.152725
3.5482	87.030983
3.5475	87.081894
3.5468	87.205299
3.5461	87.007141
3.5455	86.942261
3.5448	87.388603
3.5441	87.546989
3.5434	87.137878
3.5427	86.870354
3.542	87.002548
3.5413	87.198463
3.5406	87.151169
3.5399	87.11853
3.5392	87.228653
3.5385	87.421234
3.5379	87.478195
3.5372	87.310432
3.5365	87.415962
3.5358	87.727654
3.5351	87.845688
3.5344	87.726868
3.5337	87.496368
3.533	87.515915
3.5323	87.758629
3.5317	87.90979
3.531	88.218941
3.5303	88.518425
3.5296	88.294571
3.5289	88.067589
3.5282	88.213371
3.5275	88.47641
3.5269	88.68589
3.5262	88.657364
3.5255	88.411331
3.5248	88.43615
3.5241	88.917862
3.5234	88.987724
3.5227	88.711105
3.5221	88.892258
3.5214	89.224182
3.5207	89.509987
3.52	89.61512
3.5193	89.420876
3.5187	89.234634
3.518	89.52552
3.5173	89.681854
3.5166	89.574081
3.5159	89.758461
3.5152	90.121841
3.5146	90.311104
3.5139	90.238113
3.5132	89.971176
3.5125	89.94577
3.5118	90.398163
3.5112	90.787834
3.5105	90.678398
3.5098	90.426796
3.5091	90.456993
3.5085	90.537697
3.5078	90.733994
3.5071	90.992928
3.5064	91.156982
3.5057	91.177696
3.5051	91.213455
3.5044	91.461838
3.5037	91.672897
3.503	91.446785
3.5024	91.239647
3.5017	91.306969
3.501	91.590233
3.5003	92.046242
3.4997	92.424278
3.499	92.362236
3.4983	92.176491
3.4976	92.094704
3.497	92.154015
3.4963	92.590584
3.4956	93.050117
3.4949	93.154175
3.4943	93.115379
3.4936	92.88205
3.4929	92.51281
3.4923	92.490723
3.4916	92.523941
3.4909	92.211761
3.4902	92.192215
3.4896	92.464935
3.4889	92.41256
3.4882	92.177856
3.4876	91.996994
3.4869	91.954689
3.4862	92.008331
3.4855	92.132713
3.4849	92.007553
3.4842	91.816521
3.4835	91.953712
3.4829	92.091087
3.4822	92.055328
3.4815	91.985458
3.4809	91.888931
3.4802	91.767967
3.4795	91.651588
3.4789	91.404678
3.4782	91.823067
3.4775	92.065392
3.4769	91.706993
3.4762	91.740211
3.4755	91.818092
3.4749	91.688431
3.4742	91.439659
3.4735	91.122688
3.4729	90.959801
3.4722	90.882225
3.4715	90.988632
3.4709	91.346931
3.4702	91.613579
3.4696	91.386017
3.4689	91.123764
3.4682	91.293678
3.4676	91.395294
3.4669	91.383865
3.4662	91.410927
3.4656	91.098061
3.4649	90.767319
3.4643	90.790672
3.4636	90.880173
3.4629	90.885544
3.4623	90.935081
3.4616	91.151802
3.461	91.196556
3.4603	91.033768
3.4596	91.056145
3.459	91.113892
3.4583	90.801613
3.4577	90.482292
3.457	90.569359
3.4563	90.701263
3.4557	90.548546
3.455	90.176758
3.4544	89.82901
3.4537	89.689865
3.4531	89.737549
3.4524	89.784454
3.4517	89.696312
3.4511	89.621078
3.4504	89.346909
3.4498	88.920006
3.4491	88.456474
3.4485	88.103348
3.4478	87.956299
3.4472	87.716515
3.4465	86.968445
3.4458	86.358734
3.4452	86.160583
3.4445	85.57354
3.4439	85.02549
3.4432	84.532341
3.4426	83.447861
3.4419	82.673698
3.4413	82.065651
3.4406	81.539101
3.44	80.600975
3.4393	79.620163
3.4387	79.029022
3.438	78.317108
3.4374	77.136185
3.4367	75.972359
3.4361	74.727043
3.4354	73.639824
3.4348	72.759552
3.4341	71.460503
3.4335	69.887665
3.4328	68.57962
3.4322	67.463966
3.4315	66.21611
3.4309	64.766777
3.4302	63.257549
3.4296	61.936123
3.4289	60.701653
3.4283	59.241573
3.4276	57.747978
3.427	56.332649
3.4263	54.976826
3.4257	53.541855
3.425	52.093597
3.4244	50.649445
3.4238	49.042801
3.4231	47.433418
3.4225	46.185173
3.4218	45.146416
3.4212	43.770561
3.4205	42.24316
3.4199	41.070839
3.4192	40.036182
3.4186	38.947792
3.4179	37.80986
3.4173	36.532303
3.4167	35.261486
3.416	34.055843
3.4154	32.889771
3.4147	31.762981
3.4141	30.727449
3.4135	29.707943
3.4128	28.508261
3.4122	27.469603
3.4115	26.544485
3.4109	25.808729
3.4102	25.221981
3.4096	24.436195
3.409	23.147011
3.4083	22.252085
3.4077	21.784933
3.407	20.790733
3.4064	20.028694
3.4058	19.482887
3.4051	18.401138
3.4045	17.527708
3.4038	17.4513
3.4032	16.938711
3.4026	16.28474
3.4019	15.911977
3.4013	15.455963
3.4007	14.778638
3.4	14.011615
3.3994	13.313281
3.3988	12.792682
3.3981	12.426953
3.3975	12.117995
3.3968	11.862679
3.3962	11.452785
3.3956	11.076113
3.3949	10.694555
3.3943	10.316125
3.3937	9.946683
3.393	9.76416
3.3924	9.587892
3.3918	9.454713
3.3911	9.20946
3.3905	8.900599
3.3899	8.831714
3.3892	8.728434
3.3886	8.247408
3.388	7.637209
3.3873	7.295908
3.3867	6.924317
3.3861	6.607834
3.3854	6.700463
3.3848	6.57471
3.3842	6.078539
3.3835	5.73929
3.3829	5.539278
3.3823	5.466288
3.3817	5.709391
3.381	6.130033
3.3804	6.119089
3.3798	5.756585
3.3791	5.397989
3.3785	5.080041
3.3779	5.036071
3.3773	5.017604
3.3766	4.732681
3.376	4.498373
3.3754	4.675619
3.3747	4.771277
3.3741	4.692523
3.3735	4.567356
3.3729	4.165866
3.3722	3.93146
3.3716	3.95579
3.371	4.087014
3.3704	4.034641
3.3697	3.713859
3.3691	3.516681
3.3685	3.512186
3.3679	4.012461
3.3672	4.219802
3.3666	3.725096
3.366	3.323313
3.3654	3.420143
3.3647	3.370311
3.3641	3.252375
3.3635	3.093889
3.3629	3.060473
3.3622	3.101218
3.3616	3.122421
3.361	3.057248
3.3604	3.030769
3.3597	3.03839
3.3591	2.742329
3.3585	2.439135
3.3579	2.418616
3.3573	2.644326
3.3566	2.867886
3.356	2.724839
3.3554	2.468936
3.3548	2.486231
3.3542	2.528149
3.3535	2.575342
3.3529	2.724643
3.3523	2.702463
3.3517	2.486133
3.3511	2.248112
3.3504	2.151672
3.3498	2.275568
3.3492	2.398683
3.3486	2.386078
3.348	2.39712
3.3474	2.530396
3.3467	2.592442
3.3461	2.510072
3.3455	2.299703
3.3449	2.046829
3.3443	2.069302
3.3437	2.035202
3.343	1.922151
3.3424	1.899092
3.3418	1.948728
3.3412	1.902121
3.3406	1.734841
3.34	1.862255
3.3394	1.961138
3.3387	1.954786
3.3381	1.800014
3.3375	1.53307
3.3369	1.56932
3.3363	1.608404
3.3357	1.523103
3.3351	1.796398
3.3344	1.732496
3.3338	1.434187
3.3332	1.183366
3.3326	1.201344
3.332	1.3142
3.3314	1.046767
3.3308	1.03641
3.3302	1.143207
3.3296	1.066016
3.3289	1.21346
3.3283	1.198804
3.3277	1.288209
3.3271	1.540789
3.3265	1.616026
3.3259	1.588276
3.3253	1.419629
3.3247	1.068557
3.3241	1.143012
3.3235	1.388166
3.3228	1.236325
3.3222	1.103146
3.3216	1.16441
3.321	1.240624
3.3204	1.151415
3.3198	0.965668
3.3192	1.014425
3.3186	1.006022
3.318	0.709472
3.3174	0.571213
3.3168	0.792428
3.3162	0.996935
3.3156	1.083897
3.315	1.202224
3.3144	0.996935
3.3138	0.651726
3.3131	0.744648
3.3125	0.829069
3.3119	0.825747
3.3113	0.955702
3.3107	0.940068
3.3101	0.836984
3.3095	0.806889
3.3089	0.743866
3.3083	0.856037
3.3077	1.05732
3.3071	1.123372
3.3065	1.123763
3.3059	1.073735
3.3053	0.751585
3.3047	0.464318
3.3041	0.780508
3.3035	0.90372
3.3029	0.566034
3.3023	0.588312
3.3017	0.545417
3.3011	0.458748
3.3005	0.499103
3.2999	0.507897
3.2993	0.777283
3.2987	0.927463
3.2981	0.753051
3.2975	0.496171
3.2969	0.319903
3.2963	0.369637
3.2957	0.324788
3.2951	0.351267
3.2945	0.53633
3.2939	0.534962
3.2933	0.381069
3.2927	0.300947
3.2921	0.366999
3.2915	0.350486
3.2909	0.391133
3.2903	0.396116
3.2897	0.420739
3.2891	0.646938
3.2885	0.662376
3.2879	0.476825
3.2873	0.36651
3.2868	0.238999
3.2862	0.069765
3.2856	0.080806
3.285	0.212617
3.2844	0.148617
3.2838	-0.035371
3.2832	-0.032147
3.2826	0.127414
3.282	0.2944
3.2814	0.513857
3.2808	0.693155
3.2802	0.643225
3.2796	0.45357
3.279	0.146467
3.2784	-0.105331
3.2778	0.098394
3.2773	0.379896
3.2767	0.328012
3.2761	0.211054
3.2755	0.238412
3.2749	0.163176
3.2743	0.044849
3.2737	0.130541
3.2731	0.266944
3.2725	0.202064
3.2719	0.065563
3.2714	0.119108
3.2708	0.106797
3.2702	-0.179591
3.2696	-0.193173
3.269	0.079927
3.2684	0.083542
3.2678	-0.02218
3.2672	-0.047096
3.2666	-0.079927
3.2661	-0.197179
3.2655	-0.266651
3.2649	-0.217502
3.2643	-0.220825
3.2637	-0.088525
3.2631	0.01153
3.2625	0.040061
3.2619	0.270754
3.2614	0.349802
3.2608	0.12585
3.2602	-0.061655
3.2596	0.004202
3.259	0.150083
3.2584	0.398364
3.2578	0.315506
3.2573	0.221606
3.2567	0.376867
3.2561	0.458846
3.2555	0.408819
3.2549	0.350681
3.2543	0.250235
3.2538	0.237924
3.2532	0.378235
3.2526	0.349606
3.252	0.143341
3.2514	0.062828
3.2508	0.192
3.2503	0.337393
3.2497	0.372764
3.2491	0.446632
3.2485	0.573655
3.2479	0.5675
3.2474	0.316971
3.2468	0.009478
3.2462	0.006644
3.2456	0.080415
3.245	0.028922
3.2445	0.018174
3.2439	0.108067
3.2433	0.301728
3.2427	0.457087
3.2421	0.327719
3.2416	0.269777
3.241	0.268019
3.2404	-0.054913
3.2398	-0.167084
3.2392	-0.03029
3.2387	0.193173
3.2381	0.11393
3.2375	-0.008012
3.2369	-0.009185
3.2364	-0.132495
3.2358	-0.135426
3.2352	-0.000195
3.2346	0.236751
3.2341	0.349802
3.2335	0.172947
3.2329	0.087548
3.2323	-0.085203
3.2317	-0.126925
3.2312	0.105234
3.2306	0.020812
3.23	-0.216428
3.2294	-0.120672
3.2289	0.019249
3.2283	0.226785
3.2277	0.207927
3.2272	-0.15956
3.2266	-0.412336
3.226	-0.303096
3.2254	-0.183109
3.2249	-0.065466
3.2243	0.023744
3.2237	-0.050614
3.2231	0.008696
3.2226	0.098199
3.222	-0.130247
3.2214	-0.470181
3.2209	-0.484251
3.2203	-0.213887
3.2197	-0.189655
3.2191	-0.257954
3.2186	-0.207536
3.218	-0.206852
3.2174	-0.148031
3.2169	-0.027163
3.2163	0.048855
3.2157	0.096537
3.2151	0.074357
3.2146	-0.110705
3.214	-0.353124
3.2134	-0.372177
3.2129	-0.303487
3.2123	-0.282577
3.2117	-0.233527
3.2112	-0.18604
3.2106	-0.31531
3.21	-0.330846
3.2095	0.142657
3.2089	0.099176
3.2083	-0.323322
3.2078	-0.313454
3.2072	-0.144025
3.2066	-0.002931
3.2061	0.1792
3.2055	0.252971
3.2049	0.145783
3.2044	-0.015536
3.2038	-0.250138
3.2032	-0.334657
3.2027	-0.383707
3.2021	-0.434907
3.2015	-0.554211
3.201	-0.425722
3.2004	-0.741521
3.1998	-0.881051
3.1993	-0.659054
3.1987	-0.51542
3.1982	-0.279451
3.1976	-0.343158
3.197	-0.309936
3.1965	-0.171579
3.1959	-0.158779
3.1953	-0.119206
3.1999	-0.083151
3.1993	-0.005863
3.1988	0.010357
3.1982	-0.108654
3.1976	-0.247402
3.1971	-0.348434
3.1965	-0.372177
3.196	-0.254828
3.1954	-0.127218
3.1948	0.013679
3.1943	0.045728
3.1937	-0.098296
3.1932	-0.16982
3.1926	-0.087548
3.192	0.000977
3.1915	-0.012898
3.1909	0.009576
3.1904	0.034394
3.1898	-0.158192
3.1892	-0.20353
3.1887	0.034003
3.1881	0.035078
3.1876	-0.191414
3.187	-0.292055
3.1864	-0.255805
3.1859	-0.306809
3.1853	-0.298602
3.1848	-0.043872
3.1842	-0.021105
3.1836	-0.095463
3.1831	-0.022766
3.1825	-0.07807
3.182	0.018663
3.1814	0.184281
3.1809	0.082272
3.1803	0.063609
3.1798	-0.012507
3.1792	-0.009282
3.1786	-0.006742
3.1781	0.211444
3.1775	0.076116
3.177	-0.132006
3.1764	0.092825
3.1759	-0.062828
3.1753	-0.089014
3.1748	-0.051298
3.1742	-0.165423
3.1736	-0.101325
3.1731	0.072599
3.1725	0.087744
3.172	0.08364
3.1714	0.234504
3.1709	0.439011
3.1703	0.371982
3.1698	0.204898
3.1692	0.258248
3.1687	0.158095
3.1681	-0.083737
3.1676	-0.310816
3.167	-0.195225
3.1665	0.084324
3.1659	0.052959
3.1654	0.040843
3.1648	0.079634
3.1643	0.010357
3.1637	-0.119011
3.1632	-0.027652
3.1626	0.255316
3.1621	0.278571
3.1615	0.188385
3.161	0.264403
3.1604	0.312281
3.1599	0.389277
3.1593	0.527927
3.1588	0.43051
3.1582	0.246327
3.1577	0.183793
3.1571	0.187994
3.1566	0.268507
3.156	0.101912
3.1555	-0.021594
3.1549	0.102596
3.1544	0.23255
3.1538	0.356348
3.1533	0.442822
3.1527	0.204702
3.1522	0.270657
3.1516	0.452593
3.1511	0.35459
3.1505	0.392306
3.15	0.252678
3.1495	0.098296
3.1489	0.241051
3.1484	0.29313
3.1478	0.389863
3.1473	0.402077
3.1467	0.168061
3.1462	0.031072
3.1456	0.03713
3.1451	0.36651
3.1446	0.543658
3.144	0.066345
3.1435	-0.209979
3.1429	-0.110119
3.1424	-0.03625
3.1418	0.188189
3.1413	0.407548
3.1408	0.430217
3.1402	0.279353
3.1397	0.011041
3.1391	0.067811
3.1386	0.139334
3.138	0.073576
3.1375	0.047878
3.137	0.066638
3.1364	0.16767
3.1359	0.247597
3.1353	0.078559
3.1348	-0.056574
3.1343	0.011139
3.1337	0.081686
3.1332	0.006644
3.1326	0.026773
3.1321	0.160538
3.1316	0.061069
3.131	-0.029606
3.1305	-0.036641
3.1299	-0.149789
3.1294	-0.190241
3.1289	-0.110412
3.1283	0.000782
3.1278	0.022766
3.1272	-0.038302
3.1267	0.066638
3.1262	0.28844
3.1256	0.312672
3.1251	0.089698
3.1246	-0.11051
3.124	-0.146174
3.1235	-0.130834
3.123	-0.227957
3.1224	-0.289026
3.1219	-0.266455
3.1213	-0.20695
3.1208	-0.042895
3.1203	-0.085692
3.1197	-0.346577
3.1192	-0.310718
3.1187	-0.027261
3.1181	0.173142
3.1176	0.177246
3.1171	0.027359
3.1165	-0.051298
3.116	-0.023646
3.1155	0.260202
3.1149	0.166596
3.1144	0.106113
3.1139	0.199915
3.1133	0.32811
3.1128	0.374034
3.1123	0.107872
3.1117	-0.111487
3.1112	-0.310034
3.1107	-0.133179
3.1101	0.291762
3.1096	0.207438
3.1091	0.050028
3.1085	0.217112
3.108	0.214278
3.1075	0.228935
3.1069	0.196397
3.1064	0.078461
3.1059	0.068006
3.1053	0.072794
3.1048	0.059603
3.1043	-0.039084
3.1038	-0.113148
3.1032	0.000489
3.1027	0.037618
3.1022	-0.064489
3.1016	-0.126144
3.1011	-0.195225
3.1006	-0.347164
3.1001	-0.438816
3.0995	-0.355371
3.099	-0.115591
3.0985	0.12077
3.0979	0.106797
3.0974	0.028824
3.0969	0.154675
3.0964	0.154382
3.0958	-0.128879
3.0953	-0.311402
3.0948	-0.220141
3.0943	-0.134938
3.0937	-0.219848
3.0932	-0.284825
3.0927	-0.112757
3.0921	0.07338
3.0916	0.071524
3.0911	0.322248
3.0906	0.513466
3.09	0.277106
3.0895	0.112269
3.089	0.123115
3.0885	0.18389
3.0879	0.22229
3.0874	0.038107
3.0869	-0.070449
3.0864	-0.001075
3.0858	0.014754
3.0853	0.18047
3.0848	0.193173
3.0843	-0.034785
3.0838	-0.114614
3.0832	-0.356153
3.0827	-0.429631
3.0822	-0.057551
3.0817	0.141386
3.0811	-0.077191
3.0806	-0.172165
3.0801	0.073966
3.0796	0.138357
3.0791	0.159854
3.0785	0.25346
3.078	0.010357
3.0775	-0.30466
3.077	-0.241344
3.0764	-0.013582
3.0759	-0.048757
3.0754	-0.239878
3.0749	-0.238706
3.0744	0.081392
3.0738	0.320684
3.0733	0.236067
3.0728	0.172458
3.0723	0.336416
3.0718	0.349216
3.0713	0.137087
3.0707	0.168354
3.0702	0.364458
3.0697	0.318437
3.0692	0.136208
3.0687	-0.031951
3.0681	-0.129173
3.0676	-0.00684
3.0671	0.130638
3.0666	0.004885
3.0661	-0.247499
3.0656	-0.366901
3.065	-0.297429
3.0645	-0.273881
3.064	-0.214669
3.0635	-0.299677
3.063	-0.268116
3.0625	0.045631
3.0619	0.036739
3.0614	0.013973
3.0609	-0.19542
3.0604	-0.433051
3.0599	-0.182522
3.0594	0.082565
3.0589	0.091066
3.0583	0.138944
3.0578	0.09771
3.0573	0.145686
3.0568	0.193564
3.0563	0.197179
3.0558	0.366901
3.0553	0.168257
3.0547	-0.150473
3.0542	-0.204605
3.0537	-0.21164
3.0532	-0.020128
3.0527	0.007426
3.0522	-0.052373
3.0517	0.005569
3.0512	0.144611
3.0506	0.088037
3.0501	-0.135133
3.0496	-0.139237
3.0491	-0.04094
3.0486	0.027554
3.0481	0.035078
3.0476	0.06273
3.0471	-0.018858
3.0466	-0.127902
3.046	0.030876
3.0455	0.298113
3.045	0.296061
3.0445	0.018467
3.044	-0.341301
3.0435	-0.474871
3.043	-0.370907
3.0425	-0.278278
3.042	-0.149692
3.0415	0.046021
3.0409	0.237435
3.0404	0.391426
3.0399	0.451127
3.0394	0.391622
3.0389	0.100837
3.0384	-0.183011
3.0379	-0.183597
3.0374	-0.121063
3.0369	-0.124287
3.0364	-0.12458
3.0359	-0.175096
3.0354	-0.157313
3.0349	0.070449
3.0343	0.004104
3.0338	-0.288831
3.0333	-0.485912
3.0328	-0.488745
3.0323	-0.2176
3.0318	0.076995
3.0313	0.138064
3.0308	0.171188
3.0303	0.02306
3.0298	-0.147542
3.0293	0.143634
3.0288	0.447023
3.0283	0.315408
3.0278	-0.058431
3.0273	0.064195
3.0268	0.08276
3.0263	-0.124873
3.0258	-0.170015
3.0253	-0.077484
3.0248	0.070644
3.0243	0.279939
3.0238	0.369148
3.0232	0.140018
3.0227	0.043872
3.0222	0.06058
3.0217	-0.092434
3.0212	-0.241148
3.0207	-0.178614
3.0202	-0.193466
3.0197	-0.113148
3.0192	0.255121
3.0187	0.404813
3.0182	0.246718
3.0177	0.140605
3.0172	0.126241
3.0167	0.038693
3.0162	-0.110315
3.0157	-0.046412
3.0152	0.151744
3.0147	0.21633
3.0142	0.214473
3.0137	0.184476
3.0132	0.042113
3.0127	-0.107481
3.0122	-0.063218
3.0117	-0.008403
3.0112	-0.207145
3.0107	-0.3584
3.0102	-0.350095
3.0097	-0.354687
3.0092	-0.341496
3.0087	-0.282773
3.0082	-0.192
3.0077	-0.06996
3.0072	0.089698
3.0068	0.068202
3.0063	-0.044165
3.0058	-0.083347
3.0053	-0.123017
3.0048	-0.058626
3.0043	0.031658
3.0038	-0.031072
3.0033	-0.11735
3.0028	-0.19327
3.0023	-0.352245
3.0018	-0.34218
3.0013	-0.32342
3.0008	-0.298699
3.0003	-0.499103
